n. buildings,Intensity Measure Level,DS0,DS1,DS2
1,49.852,30,16,54
2,47.056,54,15,31
3,33.012,59,10,31
4,82.125,24,26,50
5,37.499,58,5,37
6,3.159,100,0,0
7,52.205,30,24,46
8,88.363,7,35,58
9,290.11,0,0,100
10,241.78,0,5,95
11,273.37,0,0,100
12,151.24,0,12,88
13,92.957,4,24,72
14,40.101,76,16,8
15,97.535,10,25,65
16,54.723,40,17,43
17,26.081,80,4,16
18,105.61,4,37,59
19,156.81,19,40,41
20,82.401,1,39,60
21,26.807,95,5,0
22,10.451,64,4,32
23,111.35,7,31,62
24,103.13,24,31,45
25,34.968,58,6,36
26,86.087,9,33,58
27,53.449,52,7,41
28,91.543,6,25,69
29,113.75,0,18,82
30,3.749,97,0,3
31,1.6702,100,0,0
32,66.591,62,4,34
33,17.618,82,5,13
34,10.119,75,1,24
35,198.26,0,5,95
36,12.783,89,0,11
37,87.247,12,15,73
38,89.894,24,26,50
39,120.34,2,24,74
40,70.221,20,24,56
41,180.95,0,26,74
42,45.987,29,19,52
43,157.49,0,31,69
44,161.2,0,29,71
45,106.21,5,34,61
46,240.14,0,3,97
47,53.616,27,15,58
48,203.48,0,0,100
49,98.636,6,27,67
50,38.628,71,3,26
51,130.13,1,25,74
52,90.114,9,21,70
53,201.05,0,4,96
54,204.96,0,15,85
55,156.81,0,39,61
56,264,0,4,96
57,175.04,0,8,92
58,49.518,25,22,53
59,123.19,1,38,61
60,123.71,1,35,64
61,348.13,0,0,100
62,314.31,0,0,100
63,382.72,0,0,100
64,111.55,1,23,76
65,136.55,0,20,80
66,126.73,1,38,61
67,235.22,0,19,81
68,40.211,75,15,10
69,129.13,0,34,66
70,109.85,0,26,74